Time (s),Current (uA)
0.0,826.32
0.01,684.45
0.02,698.92
0.03,758.37
0.04,705.6
0.05,711.5
0.06,710.1
0.07,742.87
0.08,709.52
0.09,724.56
0.1,721.19
0.11,698.76
0.12,721.63
0.13,777.07
0.14,684.19
0.15,703.77
0.16,727.6
0.17,761.7
0.18,709.77
0.19,691.52
0.2,758.98
0.21,747.48
0.22,702.39
0.23,726.44
0.24,719.08
0.25,761.72
0.26,685.53
0.27,693.66
0.28,733.89
0.29,754.01
0.3,726.04
0.31,713.67
0.32,666.98
0.33,731.5
0.34,732.38
0.35,707.49
0.36,731.0
0.37,700.25
0.38,679.04
0.39,763.91
0.4,653.41
0.41,704.97
0.42,750.77
0.43,716.05
0.44,698.43
0.45,745.35
0.46,696.28
0.47,732.69
0.48,740.57
0.49,677.12
0.5,743.33
0.51,699.9
0.52,661.27
0.53,770.24
0.54,704.75
0.55,670.34
0.56,655.42
0.57,704.02
0.58,722.68
0.59,726.55
0.6,666.72
0.61,706.55
0.62,675.13
0.63,699.86
0.64,679.44
0.65,722.91
0.66,733.42
0.67,713.67
0.68,711.76
0.69,714.96
0.7,712.27
0.71,737.77
0.72,741.61
0.73,675.02
0.74,743.85
0.75,717.17
0.76,777.36
0.77,705.75
0.78,819.31
0.79,692.13
0.8,721.53
0.81,768.11
0.82,741.69
0.83,740.16
0.84,687.81
0.85,726.33
0.86,736.58
0.87,736.32
0.88,676.64
0.89,710.19
0.9,714.14
0.91,742.66
0.92,678.89
0.93,699.12
0.94,749.97
0.95,703.61
0.96,690.89
0.97,714.08
0.98,703.42
0.99,734.35
1.0,744.69
1.01,650.77
1.02,719.29
1.03,638.64
1.04,736.25
1.05,729.69
1.06,674.75
1.07,696.59
1.08,734.51
1.09,723.8
1.1,693.51
1.11,708.24
1.12,686.69
1.13,690.02
1.14,775.6
1.15,699.49
1.16,674.82
1.17,781.6
1.18,700.68
1.19,693.88
1.2,731.42
1.21,673.18
1.22,728.95
1.23,784.0
1.24,691.99
1.25,670.26
1.26,748.8
1.27,676.08
1.28,765.73
1.29,709.77
1.3,693.62
1.31,708.52
1.32,711.57
1.33,718.11
1.34,678.79
1.35,660.31
1.36,770.85
1.37,644.02
1.38,725.17
1.39,737.81
1.4,675.58
1.41,668.77
1.42,738.8
1.43,705.92
1.44,737.9
1.45,707.19
1.46,697.19
1.47,758.26
1.48,721.93
1.49,669.18
1.5,751.93
1.51,696.22
1.52,731.13
1.53,718.43
1.54,673.46
1.55,696.66
1.56,699.04
1.57,673.21
1.58,771.51
1.59,695.71
1.6,701.03
1.61,784.59
1.62,665.02
1.63,727.14
1.64,747.69
1.65,720.68
1.66,673.79
1.67,719.02
1.68,715.58
1.69,678.69
1.7,724.91
1.71,732.24
1.72,709.6
1.73,718.47
1.74,748.34
1.75,650.66
1.76,730.78
1.77,713.88
1.78,718.65
1.79,680.54
1.8,739.78
1.81,668.03
1.82,722.69
1.83,761.65
1.84,666.35
1.85,721.94
1.86,726.12
1.87,703.37
1.88,739.82
1.89,710.24
1.9,741.9
1.91,682.17
1.92,748.28
1.93,702.13
1.94,724.62
1.95,746.34
1.96,702.54
1.97,757.81
1.98,710.36
1.99,661.59
2.0,775.25
2.01,707.95
2.02,699.39
2.03,737.95
2.04,668.44
2.05,736.16
2.06,701.51
2.07,719.12
2.08,644.67
2.09,705.85
2.1,722.0
2.11,705.27
2.12,700.53
2.13,715.76
2.14,676.51
2.15,703.18
2.16,716.0
2.17,692.57
2.18,735.9
2.19,708.18
2.2,720.51
2.21,716.28
2.22,770.99
2.23,665.23
2.24,719.59
2.25,762.96
2.26,708.83
2.27,716.04
2.28,668.97
2.29,731.86
2.3,734.57
2.31,738.07
2.32,673.47
2.33,719.41
2.34,755.2
2.35,691.25
2.36,776.4
2.37,701.41
2.38,736.79
2.39,687.94
2.4,694.21
2.41,726.18
2.42,700.22
2.43,734.58
2.44,671.78
2.45,742.73
2.46,744.39
2.47,663.55
2.48,737.99
2.49,699.67
2.5,694.1
2.51,754.02
2.52,655.38
2.53,752.9
2.54,668.62
2.55,705.17
2.56,702.52
2.57,724.79
2.58,691.67
2.59,745.41
2.6,695.27
2.61,670.12
2.62,712.01
2.63,741.06
2.64,734.61
2.65,698.05
2.66,737.09
2.67,698.52
2.68,703.49
2.69,722.25
2.7,694.8
2.71,641.95
2.72,707.37
2.73,762.71
2.74,716.39
2.75,717.13
2.76,772.8
2.77,734.32
2.78,706.84
2.79,726.46
2.8,720.23
2.81,712.74
2.82,779.97
2.83,707.82
2.84,739.75
2.85,747.29
2.86,715.32
2.87,634.83
2.88,779.25
2.89,715.66
2.9,716.05
2.91,714.52
2.92,736.12
2.93,716.13
2.94,715.51
2.95,696.9
2.96,778.71
2.97,716.3
2.98,659.66
2.99,745.78
3.0,721.48
3.01,725.35
3.02,739.03
3.03,671.55
3.04,712.96
3.05,767.8
3.06,690.32
3.07,722.42
3.08,730.76
3.09,742.1
3.1,728.25
3.11,692.33
3.12,754.27
3.13,780.2
3.14,667.35
3.15,693.12
3.16,763.01
3.17,753.93
3.18,726.03
3.19,710.43
3.2,767.08
3.21,717.09
3.22,691.63
3.23,689.31
3.24,670.95
3.25,742.15
3.26,695.82
3.27,711.41
3.28,772.95
3.29,707.7
3.3,721.7
3.31,736.03
3.32,690.37
3.33,660.68
3.34,713.55
3.35,751.53
3.36,652.92
3.37,742.76
3.38,681.78
3.39,709.65
3.4,712.13
3.41,674.47
3.42,740.09
3.43,733.89
3.44,720.6
3.45,640.62
3.46,720.59
3.47,692.19
3.48,709.33
3.49,696.55
3.5,669.14
3.51,679.83
3.52,756.45
3.53,648.86
3.54,726.42
3.55,635.26
3.56,749.41
3.57,734.37
3.58,688.75
3.59,711.0
3.6,752.16
3.61,761.29
3.62,697.31
3.63,742.86
3.64,746.94
3.65,730.31
3.66,698.12
3.67,733.55
3.68,717.55
3.69,713.44
3.7,729.04
3.71,773.1
3.72,678.14
3.73,703.32
3.74,755.93
3.75,730.19
3.76,708.57
3.77,776.6
3.78,731.4
3.79,726.24
3.8,761.03
3.81,713.56
3.82,689.85
3.83,763.52
3.84,694.6
3.85,785.82
3.86,698.42
3.87,719.23
3.88,783.46
3.89,685.69
3.9,695.69
3.91,797.34
3.92,683.85
3.93,713.69
3.94,739.62
3.95,705.07
3.96,697.27
3.97,786.65
3.98,722.05
3.99,674.62
4.0,764.47
4.01,724.98
4.02,733.81
4.03,771.01
4.04,693.58
4.05,768.03
4.06,680.54
4.07,705.55
4.08,736.53
4.09,689.26
4.1,686.27
4.11,718.97
4.12,665.4
4.13,704.77
4.14,722.0
4.15,721.22
4.16,701.7
4.17,726.47
4.18,709.74
4.19,674.47
4.2,746.16
4.21,692.6
4.22,711.63
4.23,695.12
4.24,725.31
4.25,687.01
4.26,695.22
4.27,698.62
4.28,724.03
4.29,727.99
4.3,703.55
4.31,710.57
4.32,729.2
4.33,698.28
4.34,727.31
4.35,730.92
4.36,697.29
4.37,728.63
4.38,697.05
4.39,684.12
4.4,715.55
4.41,701.23
4.42,746.55
4.43,708.42
4.44,690.33
4.45,735.47
4.46,708.67
4.47,727.13
4.48,676.71
4.49,705.59
4.5,752.65
4.51,660.11
4.52,731.46
4.53,715.87
4.54,715.09
4.55,746.96
4.56,707.76
4.57,695.73
4.58,678.9
4.59,723.01
4.6,724.57
4.61,679.22
4.62,736.17
4.63,719.14
4.64,701.44
4.65,731.76
4.66,737.26
4.67,662.73
4.68,745.69
4.69,733.15
4.7,691.81
4.71,744.65
4.72,747.42
4.73,732.75
4.74,693.83
4.75,712.46
4.76,752.19
4.77,716.81
4.78,692.57
4.79,677.71
4.8,771.82
4.81,677.25
4.82,749.96
4.83,685.79
4.84,687.94
4.85,715.75
4.86,767.93
4.87,692.93
4.88,678.83
4.89,714.34
4.9,748.26
4.91,693.25
4.92,720.11
4.93,697.33
4.94,750.73
4.95,699.39
4.96,667.37
4.97,734.59
4.98,679.03
4.99,722.39
5.0,713.53
5.01,688.94
5.02,716.46
5.03,719.06
5.04,712.9
5.05,677.34
5.06,726.65
5.07,720.54
5.08,724.51
5.09,693.74
5.1,721.82
5.11,686.76
5.12,720.18
5.13,754.31
5.14,740.1
5.15,714.94
5.16,724.34
5.17,686.93
5.18,706.26
5.19,678.2
5.2,726.77
5.21,699.89
5.22,727.07
5.23,697.58
5.24,696.5
5.25,718.25
5.26,745.72
5.27,681.49
5.28,702.02
5.29,724.09
5.3,708.24
5.31,696.31
5.32,693.54
5.33,706.29
5.34,702.34
5.35,715.87
5.36,666.6
5.37,734.86
5.38,690.72
5.39,705.7
5.4,714.13
5.41,691.37
5.42,690.99
5.43,680.37
5.44,725.42
5.45,701.54
5.46,729.75
5.47,719.58
5.48,715.86
5.49,720.87
5.5,687.51
5.51,724.29
5.52,741.89
5.53,717.07
5.54,719.84
5.55,704.18
5.56,723.55
5.57,669.76
5.58,720.44
5.59,718.66
5.6,708.43
5.61,678.71
5.62,723.6
5.63,701.69
5.64,703.86
5.65,745.98
5.66,691.4
5.67,674.71
5.68,751.61
5.69,748.97
5.7,665.06
5.71,738.92
5.72,723.63
5.73,702.71
5.74,735.59
5.75,706.22
5.76,750.03
5.77,718.85
5.78,707.54
5.79,737.92
5.8,724.81
5.81,720.03
5.82,769.23
5.83,716.41
5.84,654.61
5.85,771.75
5.86,708.42
5.87,729.91
5.88,641.88
5.89,755.46
5.9,735.75
5.91,732.45
5.92,695.25
5.93,740.31
5.94,740.63
5.95,709.89
5.96,714.46
5.97,744.26
5.98,720.51
5.99,787.3
6.0,665.64
6.01,725.09
6.02,786.39
6.03,676.65
6.04,729.44
6.05,730.82
6.06,681.19
6.07,715.03
6.08,689.27
6.09,755.66
6.1,726.77
6.11,662.97
6.12,708.84
6.13,691.84
6.14,659.72
6.15,723.41
6.16,701.22
6.17,696.35
6.18,675.02
6.19,723.0
6.2,704.74
6.21,737.94
6.22,703.53
6.23,709.49
6.24,679.24
6.25,762.87
6.26,721.54
6.27,715.01
6.28,734.29
6.29,726.9
6.3,757.59
6.31,679.85
6.32,660.76
6.33,726.78
6.34,721.1
6.35,695.26
6.36,719.29
6.37,719.11
6.38,691.67
6.39,694.98
6.4,735.7
6.41,670.3
6.42,737.41
6.43,708.27
6.44,724.35
6.45,704.94
6.46,719.69
6.47,699.6
6.48,684.63
6.49,743.75
6.5,645.24
6.51,711.89
6.52,729.87
6.53,730.09
6.54,724.02
6.55,722.1
6.56,644.69
6.57,744.69
6.58,716.54
6.59,682.55
6.6,780.73
6.61,715.35
6.62,729.57
6.63,710.77
6.64,717.82
6.65,705.89
6.66,771.7
6.67,722.67
6.68,735.01
6.69,704.04
6.7,689.03
6.71,774.12
6.72,696.24
6.73,706.62
6.74,736.34
6.75,701.16
6.76,744.14
6.77,736.7
6.78,675.18
6.79,734.06
6.8,777.79
6.81,696.93
6.82,746.8
6.83,684.52
6.84,708.77
6.85,736.79
6.86,791.01
6.87,666.27
6.88,733.85
6.89,720.27
6.9,677.81
6.91,758.53
6.92,706.6
6.93,726.9
6.94,685.49
6.95,713.62
6.96,758.55
6.97,733.24
6.98,648.48
6.99,696.65
7.0,709.86
7.01,709.44
7.02,709.66
7.03,730.78
7.04,689.85
7.05,734.1
7.06,722.59
7.07,706.76
7.08,691.96
7.09,713.12
7.1,717.2
7.11,730.34
7.12,714.33
7.13,692.67
7.14,731.54
7.15,683.64
7.16,688.5
7.17,684.69
7.18,766.02
7.19,730.82
7.2,680.12
7.21,721.64
7.22,711.0
7.23,711.45
7.24,736.9
7.25,680.69
7.26,719.54
7.27,677.2
7.28,711.75
7.29,724.91
7.3,743.56
7.31,689.74
7.32,712.6
7.33,728.89
7.34,713.87
7.35,669.29
7.36,687.35
7.37,735.04
7.38,733.93
7.39,685.03
7.4,728.31
7.41,725.22
7.42,655.68
7.43,718.43
7.44,798.23
7.45,693.1
7.46,700.57
7.47,713.84
7.48,726.61
7.49,691.83
7.5,729.06
7.51,724.77
7.52,681.84
7.53,742.56
7.54,683.18
7.55,788.21
7.56,722.7
7.57,684.54
7.58,720.05
7.59,698.52
7.6,736.66
7.61,718.39
7.62,711.97
7.63,691.14
7.64,745.35
7.65,665.04
7.66,767.03
7.67,679.84
7.68,718.82
7.69,730.43
7.7,675.8
7.71,706.73
7.72,723.53
7.73,717.5
7.74,675.59
7.75,670.52
7.76,734.56
7.77,690.02
7.78,711.04
7.79,748.58
7.8,652.95
7.81,729.89
7.82,663.94
7.83,716.2
7.84,750.39
7.85,639.3
7.86,733.39
7.87,694.76
7.88,682.36
7.89,707.32
7.9,731.75
7.91,659.42
7.92,708.73
7.93,740.18
7.94,652.55
7.95,694.1
7.96,763.77
7.97,666.71
7.98,734.01
7.99,752.95
8.0,689.95
8.01,709.3
8.02,699.38
8.03,699.85
8.04,733.18
8.05,685.47
8.06,686.82
8.07,749.28
8.08,702.73
8.09,670.84
8.1,772.38
8.11,692.91
8.12,712.97
8.13,788.4
8.14,686.66
8.15,744.83
8.16,713.45
8.17,704.29
8.18,718.5
8.19,740.48
8.2,715.04
8.21,673.79
8.22,704.98
8.23,735.68
8.24,711.7
8.25,713.53
8.26,720.89
8.27,775.08
8.28,688.56
8.29,706.45
8.3,675.38
8.31,734.58
8.32,730.67
8.33,667.83
8.34,733.51
8.35,711.67
8.36,705.06
8.37,721.46
8.38,674.7
8.39,729.04
8.4,750.2
8.41,740.75
8.42,688.68
8.43,719.95
8.44,686.36
8.45,713.0
8.46,628.34
8.47,761.24
8.48,693.06
8.49,699.05
8.5,698.5
8.51,711.22
8.52,723.45
8.53,712.3
8.54,722.77
8.55,656.19
8.56,711.28
8.57,778.19
8.58,660.72
8.59,724.37
8.6,771.57
8.61,716.88
8.62,708.01
8.63,709.06
8.64,743.56
8.65,733.57
8.66,719.64
8.67,732.3
8.68,725.87
8.69,689.66
8.7,708.38
8.71,696.73
8.72,674.9
8.73,786.33
8.74,729.6
8.75,723.14
8.76,750.8
8.77,733.37
8.78,727.25
8.79,718.01
8.8,687.95
8.81,719.64
8.82,678.37
8.83,682.5
8.84,774.89
8.85,716.56
8.86,720.55
8.87,709.63
8.88,765.11
8.89,687.41
8.9,731.0
8.91,763.85
8.92,730.76
8.93,691.0
8.94,726.59
8.95,721.7
8.96,685.07
8.97,704.71
8.98,756.2
8.99,740.41
9.0,750.54
9.01,710.71
9.02,689.32
9.03,697.95
9.04,822.88
9.05,712.17
9.06,689.0
9.07,732.98
9.08,761.38
9.09,725.97
9.1,677.62
9.11,727.96
9.12,729.1
9.13,695.04
9.14,712.14
9.15,758.61
9.16,753.62
9.17,703.36
9.18,691.3
9.19,713.17
9.2,722.61
9.21,696.42
9.22,709.34
9.23,655.37
9.24,732.61
9.25,718.56
9.26,686.69
9.27,724.5
9.28,737.4
9.29,676.59
9.3,683.01
9.31,752.62
9.32,689.88
9.33,680.58
9.34,734.34
9.35,742.09
9.36,753.78
9.37,628.05
9.38,729.4
9.39,716.55
9.4,720.31
9.41,719.72
9.42,724.09
9.43,665.59
9.44,733.15
9.45,726.06
9.46,683.36
9.47,690.0
9.48,725.1
9.49,767.26
9.5,684.54
9.51,783.68
9.52,737.6
9.53,724.37
9.54,637.27
9.55,712.52
9.56,716.12
9.57,749.71
9.58,717.43
9.59,756.82
9.6,738.27
9.61,673.81
9.62,712.64
9.63,764.04
9.64,701.65
9.65,680.71
9.66,713.25
9.67,723.02
9.68,756.66
9.69,714.57
9.7,681.1
9.71,742.76
9.72,745.94
9.73,660.96
9.74,728.54
9.75,720.35
9.76,709.46
9.77,746.93
9.78,743.1
9.79,673.72
9.8,724.21
9.81,736.92
9.82,699.15
9.83,723.71
9.84,682.5
9.85,717.45
9.86,731.66
9.87,667.87
9.88,691.95
9.89,727.84
9.9,737.86
9.91,720.0
9.92,694.95
9.93,751.19
9.94,741.28
9.95,674.59
9.96,747.89
9.97,727.06
9.98,685.98
9.99,711.8
10.0,737.37
10.01,709.04
10.02,680.14
10.03,708.21
10.04,756.5
10.05,711.24
10.06,676.58
10.07,713.81
10.08,724.25
10.09,684.82
10.1,679.33
10.11,760.5
10.12,683.62
10.13,741.06
10.14,670.55
10.15,744.46
10.16,717.2
10.17,706.5
10.18,643.56
10.19,710.46
10.2,744.4
10.21,663.7
10.22,744.59
10.23,705.96
10.24,700.36
10.25,683.16
10.26,754.72
10.27,660.3
10.28,728.87
10.29,722.22
10.3,727.4
10.31,724.52
10.32,703.02
10.33,725.75
10.34,739.04
10.35,633.28
10.36,726.39
10.37,701.78
10.38,713.74
10.39,707.29
10.4,718.49
10.41,724.35
10.42,713.21
10.43,742.28
10.44,696.24
10.45,702.38
10.46,691.13
10.47,703.83
10.48,732.91
10.49,728.18
10.5,706.9
10.51,716.82
10.52,762.45
10.53,688.63
10.54,704.96
10.55,706.54
10.56,707.36
10.57,733.83
10.58,724.55
10.59,714.18
10.6,679.87
10.61,727.22
10.62,645.83
10.63,743.16
10.64,678.75
10.65,704.39
10.66,741.07
10.67,704.68
10.68,703.2
10.69,698.58
10.7,720.12
10.71,672.78
10.72,675.43
10.73,712.33
10.74,740.54
10.75,739.84
10.76,681.91
10.77,709.52
10.78,702.94
10.79,716.26
10.8,658.83
10.81,728.09
10.82,689.99
10.83,680.66
10.84,726.87
10.85,720.0
10.86,732.07
10.87,698.52
10.88,684.6
10.89,724.64
10.9,705.83
10.91,760.14
10.92,700.63
10.93,707.39
10.94,703.73
10.95,674.52
10.96,712.64
10.97,786.58
10.98,703.71
10.99,701.27
11.0,740.49
11.01,676.19
11.02,718.19
11.03,683.86
11.04,692.98
11.05,744.69
11.06,741.01
11.07,649.02
11.08,777.93
11.09,682.12
11.1,699.29
11.11,738.29
11.12,680.0
11.13,686.8
11.14,762.72
11.15,664.36
11.16,701.13
11.17,747.38
11.18,688.93
11.19,722.31
11.2,733.17
11.21,740.34
11.22,688.13
11.23,738.28
11.24,732.28
11.25,697.31
11.26,725.88
11.27,734.39
11.28,699.19
11.29,747.49
11.3,704.07
11.31,708.7
11.32,731.31
11.33,738.52
11.34,705.06
11.35,700.9
11.36,741.63
11.37,663.64
11.38,700.54
11.39,758.32
11.4,705.57
11.41,664.17
11.42,723.1
11.43,749.87
11.44,704.28
11.45,690.61
11.46,690.62
11.47,708.87
11.48,745.86
11.49,734.08
11.5,679.98
11.51,712.31
11.52,735.34
11.53,753.82
11.54,752.99
11.55,687.41
11.56,727.59
11.57,841.95
11.58,651.19
11.59,759.75
11.6,675.22
11.61,755.92
11.62,652.21
11.63,740.79
11.64,726.64
11.65,755.69
11.66,724.19
11.67,694.86
11.68,722.53
11.69,686.68
11.7,754.57
11.71,762.51
11.72,699.16
11.73,674.91
11.74,743.55
11.75,705.94
11.76,678.55
11.77,743.76
11.78,732.25
11.79,715.35
11.8,723.53
11.81,707.48
11.82,734.64
11.83,684.32
11.84,722.89
11.85,791.32
11.86,720.18
11.87,687.25
11.88,755.04
11.89,656.83
11.9,692.93
11.91,752.36
11.92,736.99
11.93,666.19
11.94,720.61
11.95,740.88
11.96,665.34
11.97,771.95
11.98,673.63
11.99,738.07
12.0,734.74
12.01,820.02
12.02,678.65
12.03,735.7
12.04,722.11
12.05,734.19
12.06,687.12
12.07,790.91
12.08,672.81
12.09,760.6
12.1,706.21
12.11,668.22
12.12,732.18
12.13,710.72
12.14,712.84
12.15,683.1
12.16,694.27
12.17,685.29
12.18,698.67
12.19,715.17
12.2,708.35
12.21,716.46
12.22,693.85
12.23,693.02
12.24,670.64
12.25,732.13
12.26,699.03
12.27,708.7
12.28,706.53
12.29,662.57
12.3,725.94
12.31,715.39
12.32,737.19
12.33,739.58
12.34,704.5
12.35,696.47
12.36,721.93
12.37,715.16
12.38,663.33
12.39,751.52
12.4,690.97
12.41,766.35
12.42,691.42
12.43,672.38
12.44,718.05
12.45,731.18
12.46,746.54
12.47,690.27
12.48,724.67
12.49,726.08
12.5,707.13
12.51,760.34
12.52,727.65
12.53,681.5
12.54,748.53
12.55,705.22
12.56,738.34
12.57,727.16
12.58,735.28
12.59,774.66
12.6,717.9
12.61,786.96
12.62,703.27
12.63,688.49
12.64,773.26
12.65,691.09
12.66,753.36
12.67,739.0
12.68,704.08
12.69,713.84
12.7,730.59
12.71,669.41
12.72,698.22
12.73,726.74
12.74,721.81
12.75,685.24
12.76,709.56
12.77,792.49
12.78,680.21
12.79,745.07
12.8,641.32
12.81,744.75
12.82,716.99
12.83,686.72
12.84,698.41
12.85,755.72
12.86,721.39
12.87,730.25
12.88,681.29
12.89,728.1
12.9,707.97
12.91,754.75
12.92,696.62
12.93,674.03
12.94,748.8
12.95,703.95
12.96,739.97
12.97,714.58
12.98,723.27
12.99,651.59
13.0,751.06
13.01,667.25
13.02,747.17
13.03,723.61
13.04,701.96
13.05,720.72
13.06,673.51
13.07,727.98
13.08,701.42
13.09,741.86
13.1,696.68
13.11,717.98
13.12,687.81
13.13,691.98
13.14,707.17
13.15,751.05
13.16,660.34
13.17,660.17
13.18,760.78
13.19,702.99
13.2,753.78
13.21,703.66
13.22,750.46
13.23,683.5
13.24,663.0
13.25,725.89
13.26,692.61
13.27,720.8
13.28,720.42
13.29,736.75
13.3,696.79
13.31,683.74
13.32,734.12
13.33,723.32
13.34,693.24
13.35,750.25
13.36,683.32
13.37,710.52
13.38,739.16
13.39,715.86
13.4,723.54
13.41,705.96
13.42,696.76
13.43,752.83
13.44,680.86
13.45,697.74
13.46,754.75
13.47,719.8
13.48,675.75
13.49,649.87
13.5,730.93
13.51,728.85
13.52,713.84
13.53,688.87
13.54,683.2
13.55,760.65
13.56,690.95
13.57,682.45
13.58,717.3
13.59,695.31
13.6,734.86
13.61,687.71
13.62,659.75
13.63,710.35
13.64,726.65
13.65,692.97
13.66,740.2
13.67,695.72
13.68,708.81
13.69,745.3
13.7,678.79
13.71,690.87
13.72,724.09
13.73,736.51
13.74,736.59
13.75,712.84
13.76,713.97
13.77,706.78
13.78,723.37
13.79,690.67
13.8,746.83
13.81,699.93
13.82,731.63
13.83,709.4
13.84,715.31
13.85,715.55
13.86,696.6
13.87,750.21
13.88,665.28
13.89,737.22
13.9,707.05
13.91,780.4
13.92,678.22
13.93,715.54
13.94,751.44
13.95,659.64
13.96,757.13
13.97,730.43
13.98,697.99
13.99,698.34
14.0,688.25
14.01,690.91
14.02,726.6
14.03,730.3
14.04,692.04
14.05,700.93
14.06,717.86
14.07,693.01
14.08,699.91
14.09,752.64
14.1,699.91
14.11,714.06
14.12,720.1
14.13,651.3
14.14,708.48
14.15,718.43
14.16,700.69
14.17,717.31
14.18,752.99
14.19,683.24
14.2,679.93
14.21,706.63
14.22,754.04
14.23,691.67
14.24,695.62
14.25,688.57
14.26,753.34
14.27,722.92
14.28,688.64
14.29,701.2
14.3,732.79
14.31,696.17
14.32,696.71
14.33,712.6
14.34,750.88
14.35,714.52
14.36,692.05
14.37,743.06
14.38,787.92
14.39,701.43
14.4,740.01
14.41,676.41
14.42,764.19
14.43,691.99
14.44,765.36
14.45,710.0
14.46,716.34
14.47,760.5
14.48,688.51
14.49,715.13
14.5,717.87
14.51,726.16
14.52,767.8
14.53,745.6
14.54,681.05
14.55,754.36
14.56,728.64
14.57,699.33
14.58,776.38
14.59,689.15
14.6,709.19
14.61,735.89
14.62,694.88
14.63,716.53
14.64,757.11
14.65,725.77
14.66,714.52
14.67,724.36
14.68,714.13
14.69,785.9
14.7,686.24
14.71,710.11
14.72,734.76
14.73,718.98
14.74,731.13
14.75,739.08
14.76,717.89
14.77,735.24
14.78,759.72
14.79,748.08
14.8,699.09
14.81,731.43
14.82,741.79
14.83,699.91
14.84,720.18
14.85,723.06
14.86,715.49
14.87,736.96
14.88,700.63
14.89,709.21
14.9,718.93
14.91,703.29
14.92,692.12
14.93,717.41
14.94,701.17
14.95,676.02
14.96,700.81
14.97,710.54
14.98,722.38
14.99,736.93
15.0,702.97
15.01,734.68
15.02,729.04
15.03,712.64
15.04,689.04
15.05,729.53
15.06,751.16
15.07,690.21
15.08,737.53
15.09,713.55
15.1,693.83
15.11,724.53
15.12,712.88
15.13,690.47
15.14,702.62
15.15,668.22
15.16,786.69
15.17,671.77
15.18,784.51
15.19,759.7
